File: V44_Roentgenreflektometrie/data/unused/6_rocking_2.UXD
; C:\DIFFDAT1\Praktikum\Popp-Weitkemper\6_rockingscan_2.raw(Diffrac Plus V1.01 file) converted by XCH V1.0
_FILEVERSION=2
_SITE='Deutschland'
_USER='Administrator'
_GONIOMETER_CODE=4885
; D8 Theta/Theta; Special
_SAMPLE_CHANGER_CODE=0
_ATTACHMENTS_CODE=0
_GONIOMETER_RADIUS=350
_FIXED_DIVSLIT=0.600000
_FIXED_SAMPLESLIT=0.000000
_FIXED_DETSLIT=11.66
_MONOCHROMATOR=0
; None
_THIN_FILM='N'
_BETA_FILTER='Y'
_FIXED_ANTISLIT=8.340000
_ANALYZER_CODE=0
; None
_DATEMEASURED='31-Oct-2022 10:02:11'
_WL_UNIT='A'
_WL1=1.540600
_WL2=1.544390
_WL3=1.392220
_WLRATIO=0.500000
_ANODE='Cu'
; (Data for Range number 1)
_DRIVE='THETA'
_STEPTIME=0.999980
_STEPSIZE=0.005000
_STEPMODE='C'
_START=0.000000
_THETA=0.000000
_2THETA=0.300000
_KHI=0.000000
_PHI=92.46
_X=-1.000000
_Y=-1.000000
_Z=0.206000
_DIVERGENCE=0.000000
_ANTISCATTER=0.000000
_DETECTOR=5
_DETECTORSLIT='unkn'
_AUX1=0.000000
_AUX2=0.000000
_AUX3=0.000000
_TIMESTARTED=2.000000
_TEMP_RATE=-1.000000
_TEMP_DELAY=-1.000000
_KV=40
_MA=35
_RANGE_WL=1.540600
_3DPLANE=0
_GONIOMETER=0.300000
_PSDCHANNEL0=0
_2THETACOUNTS
   0.0000      3343
   0.0050      3281
   0.0100      3264
   0.0150      3324
   0.0200      3388
   0.0250      3273
   0.0300      3301
   0.0350      3294
   0.0400      3312
   0.0450      3328
   0.0500      3334
   0.0550      3375
   0.0600      3367
   0.0650      3444
   0.0700      3325
   0.0750      3481
   0.0800      3417
   0.0850      3620
   0.0900      3797
   0.0950      3820
   0.1000      3934
   0.1050      4052
   0.1100      4381
   0.1150      4878
   0.1200      5369
   0.1250      6168
   0.1300      6909
   0.1350      8168
   0.1400     10010
   0.1450     11959
   0.1500     14431
   0.1550     17209
   0.1600     20094
   0.1650     24260
   0.1700     35924
   0.1750     67207
   0.1800    131092
   0.1850    211507
   0.1900    267897
   0.1950    302523
   0.2000    309214
   0.2050    304261
   0.2100    289353
   0.2150    244734
   0.2200    166737
   0.2250     90681
   0.2300     49381
   0.2350     28656
   0.2400     22260
   0.2450     17732
   0.2500     14356
   0.2550     11524
   0.2600      9296
   0.2650      7839
   0.2700      6651
   0.2750      5549
   0.2800      4989
   0.2850      4540
   0.2900      4216
   0.2950      3927
   0.3000      3752