File: V44_Roentgenreflektometrie/data/unused/6_rocking_1.UXD
; C:\DIFFDAT1\Praktikum\Popp-Weitkemper\6_rockingscan_1.raw(Diffrac Plus V1.01 file) converted by XCH V1.0
_FILEVERSION=2
_SITE='Deutschland'
_USER='Administrator'
_GONIOMETER_CODE=4885
; D8 Theta/Theta; Special
_SAMPLE_CHANGER_CODE=0
_ATTACHMENTS_CODE=0
_GONIOMETER_RADIUS=350
_FIXED_DIVSLIT=0.600000
_FIXED_SAMPLESLIT=0.000000
_FIXED_DETSLIT=11.66
_MONOCHROMATOR=0
; None
_THIN_FILM='N'
_BETA_FILTER='Y'
_FIXED_ANTISLIT=8.340000
_ANALYZER_CODE=0
; None
_DATEMEASURED='31-Oct-2022 09:55:48'
_WL_UNIT='A'
_WL1=1.540600
_WL2=1.544390
_WL3=1.392220
_WLRATIO=0.500000
_ANODE='Cu'
; (Data for Range number 1)
_DRIVE='THETA'
_STEPTIME=0.999980
_STEPSIZE=0.005000
_STEPMODE='C'
_START=0.000000
_THETA=0.000000
_2THETA=0.300000
_KHI=0.000000
_PHI=92.46
_X=-1.000000
_Y=-1.000000
_Z=0.206000
_DIVERGENCE=0.000000
_ANTISCATTER=0.000000
_DETECTOR=5
_DETECTORSLIT='unkn'
_AUX1=0.000000
_AUX2=0.000000
_AUX3=0.000000
_TIMESTARTED=1.000000
_TEMP_RATE=-1.000000
_TEMP_DELAY=-1.000000
_KV=40
_MA=35
_RANGE_WL=1.540600
_3DPLANE=0
_GONIOMETER=0.299700
_PSDCHANNEL0=0
_2THETACOUNTS
   0.0000      3309
   0.0050      3248
   0.0100      3271
   0.0150      3245
   0.0200      3268
   0.0250      3350
   0.0300      3211
   0.0350      3312
   0.0400      3313
   0.0450      3409
   0.0500      3302
   0.0550      3336
   0.0600      3330
   0.0650      3384
   0.0700      3424
   0.0750      3354
   0.0800      3492
   0.0850      3492
   0.0900      3667
   0.0950      3690
   0.1000      3986
   0.1050      4146
   0.1100      4475
   0.1150      4873
   0.1200      5502
   0.1250      6049
   0.1300      7008
   0.1350      8391
   0.1400     10033
   0.1450     12096
   0.1500     14729
   0.1550     17422
   0.1600     20369
   0.1650     24736
   0.1700     36122
   0.1750     68409
   0.1800    132762
   0.1850    216184
   0.1900    274091
   0.1950    301219
   0.2000    313109
   0.2050    310083
   0.2100    289266
   0.2150    243107
   0.2200    167891
   0.2250     91398
   0.2300     49365
   0.2350     28804
   0.2400     22582
   0.2450     18050
   0.2500     14245
   0.2550     11536
   0.2600      9365
   0.2650      7776
   0.2700      6623
   0.2750      5736
   0.2800      4952
   0.2850      4602
   0.2900      4134
   0.2950      4008
   0.3000      3780