File: V44_Roentgenreflektometrie/data/6_rocking_3.UXD
; C:\DIFFDAT1\Praktikum\Popp-Weitkemper\6_rockingscan_3.raw(Diffrac Plus V1.01 file) converted by XCH V1.0
_FILEVERSION=2
_SITE='Deutschland'
_USER='Administrator'
_GONIOMETER_CODE=4885
; D8 Theta/Theta; Special
_SAMPLE_CHANGER_CODE=0
_ATTACHMENTS_CODE=0
_GONIOMETER_RADIUS=350
_FIXED_DIVSLIT=0.600000
_FIXED_SAMPLESLIT=0.000000
_FIXED_DETSLIT=11.66
_MONOCHROMATOR=0
; None
_THIN_FILM='N'
_BETA_FILTER='Y'
_FIXED_ANTISLIT=8.340000
_ANALYZER_CODE=0
; None
_DATEMEASURED='31-Oct-2022 10:24:20'
_WL_UNIT='A'
_WL1=1.540600
_WL2=1.544390
_WL3=1.392220
_WLRATIO=0.500000
_ANODE='Cu'
; (Data for Range number 1)
_DRIVE='THETA'
_STEPTIME=0.999980
_STEPSIZE=0.005000
_STEPMODE='C'
_START=0.000000
_THETA=0.000000
_2THETA=0.300000
_KHI=0.000000
_PHI=92.46
_X=-1.000000
_Y=-1.500000
_Z=0.218000
_DIVERGENCE=0.000000
_ANTISCATTER=0.000000
_DETECTOR=5
_DETECTORSLIT='unkn'
_AUX1=0.000000
_AUX2=0.000000
_AUX3=0.000000
_TIMESTARTED=2.000000
_TEMP_RATE=-1.000000
_TEMP_DELAY=-1.000000
_KV=40
_MA=35
_RANGE_WL=1.540600
_3DPLANE=0
_GONIOMETER=0.299000
_PSDCHANNEL0=0
_2THETACOUNTS
   0.0000      3352
   0.0050      3328
   0.0100      3314
   0.0150      3387
   0.0200      3429
   0.0250      3389
   0.0300      3373
   0.0350      3593
   0.0400      3551
   0.0450      3809
   0.0500      3772
   0.0550      3907
   0.0600      4194
   0.0650      4594
   0.0700      4957
   0.0750      5576
   0.0800      6270
   0.0850      7340
   0.0900      8577
   0.0950     10492
   0.1000     12701
   0.1050     15502
   0.1100     17766
   0.1150     21202
   0.1200     25414
   0.1250     36759
   0.1300     69424
   0.1350    134931
   0.1400    221540
   0.1450    284258
   0.1500    314799
   0.1550    318797
   0.1600    323450
   0.1650    300421
   0.1700    256466
   0.1750    178248
   0.1800     96707
   0.1850     53025
   0.1900     30096
   0.1950     23424
   0.2000     19201
   0.2050     15115
   0.2100     11998
   0.2150      9594
   0.2200      8120
   0.2250      6945
   0.2300      5741
   0.2350      5136
   0.2400      4693
   0.2450      4416
   0.2500      4144
   0.2550      3961
   0.2600      3882
   0.2650      3694
   0.2700      3530
   0.2750      3470
   0.2800      3639
   0.2850      3480
   0.2900      3479
   0.2950      3539
   0.3000      3396