File: V44_Roentgenreflektometrie/data/8_reflektivitaet.UXD
; C:\DIFFDAT1\Praktikum\Popp-Weitkemper\8_reflektivitaetsscan.raw(Diffrac Plus V1.01 file) converted by XCH V1.0
_FILEVERSION=2
_SITE='Deutschland'
_USER='Administrator'
_GONIOMETER_CODE=4885
; D8 Theta/Theta; Special
_SAMPLE_CHANGER_CODE=0
_ATTACHMENTS_CODE=0
_GONIOMETER_RADIUS=350
_FIXED_DIVSLIT=0.600000
_FIXED_SAMPLESLIT=0.000000
_FIXED_DETSLIT=11.66
_MONOCHROMATOR=0
; None
_THIN_FILM='N'
_BETA_FILTER='Y'
_FIXED_ANTISLIT=8.340000
_ANALYZER_CODE=0
; None
_DATEMEASURED='31-Oct-2022 10:35:14'
_WL_UNIT='A'
_WL1=1.540600
_WL2=1.544390
_WL3=1.392220
_WLRATIO=0.500000
_ANODE='Cu'
; (Data for Range number 1)
_DRIVE='THETA'
_STEPTIME=5.000660
_STEPSIZE=0.005000
_STEPMODE='C'
_START=0.000000
_THETA=0.000000
_2THETA=0.000000
_KHI=0.000000
_PHI=92.46
_X=-1.000000
_Y=-1.500000
_Z=0.227000
_DIVERGENCE=0.000000
_ANTISCATTER=0.000000
_DETECTOR=5
_DETECTORSLIT='unkn'
_AUX1=0.000000
_AUX2=0.000000
_AUX3=0.000000
_TIMESTARTED=2.000000
_TEMP_RATE=-1.000000
_TEMP_DELAY=-1.000000
_KV=40
_MA=35
_RANGE_WL=1.540600
_3DPLANE=0
_GONIOMETER=-0.002500
_PSDCHANNEL0=0
_2THETACOUNTS
   0.0000   1698580
   0.0100   2360680
   0.0200   2726100
   0.0300   2271070
   0.0400   1579690
   0.0500   1176410
   0.0600   1045040
   0.0700   1021680
   0.0800   1038450
   0.0900   1108400
   0.1000   1183080
   0.1100   1282580
   0.1200   1366000
   0.1300   1470200
   0.1400   1565880
   0.1500   1624410
   0.1600   1669700
   0.1700   1684260
   0.1800   1753990
   0.1900   1819430
   0.2000   1876940
   0.2100   1823760
   0.2200   1590970
   0.2300   1176760
   0.2400    729586
   0.2500    415355
   0.2600    262087
   0.2700    198154
   0.2800    142141
   0.2900     96309
   0.3000     76754
   0.3100     71754
   0.3200     62170
   0.3300     45398
   0.3400     34690
   0.3500     33012
   0.3600     32056
   0.3700     27388
   0.3800     20341
   0.3900     16803
   0.4000     16579
   0.4100     16386
   0.4200     14070
   0.4300     10656
   0.4400      9209
   0.4500      9086
   0.4600      9094
   0.4700      8243
   0.4800      6421
   0.4900      5508
   0.5000      5554
   0.5100      5503
   0.5200      4876
   0.5300      4065
   0.5400      3358
   0.5500      3358
   0.5600      3263
   0.5700      3040
   0.5800      2548
   0.5900      2134
   0.6000      2154
   0.6100      2136
   0.6200      2048
   0.6300      1722
   0.6400      1434
   0.6500      1393
   0.6600      1401
   0.6700      1257
   0.6800      1254
   0.6900      1024
   0.7000       937
   0.7100       961
   0.7200       964
   0.7300       855
   0.7400       731
   0.7500       664
   0.7600       666
   0.7700       628
   0.7800       622
   0.7900       537
   0.8000       492
   0.8100       430
   0.8200       461
   0.8300       399
   0.8400       364
   0.8500       374
   0.8600       358
   0.8700       322
   0.8800       367
   0.8900       288
   0.9000       267
   0.9100       265
   0.9200       246
   0.9300       224
   0.9400       214
   0.9500       180
   0.9600       177
   0.9700       161
   0.9800       200
   0.9900       162
   1.0000       133
   1.0100       122
   1.0200       116
   1.0300       124
   1.0400        99
   1.0500        95
   1.0600        86
   1.0700        91
   1.0800        90
   1.0900        82
   1.1000        69
   1.1100        80
   1.1200        73
   1.1300        71
   1.1400        66
   1.1500        65
   1.1600        53
   1.1700        52
   1.1800        46
   1.1900        52
   1.2000        46
   1.2100        41
   1.2200        38
   1.2300        28
   1.2400        28
   1.2500        37
   1.2600        33
   1.2700        29
   1.2800        35
   1.2900        30
   1.3000        25
   1.3100        18
   1.3200        26
   1.3300        20
   1.3400        26
   1.3500        23
   1.3600        23
   1.3700        22
   1.3800        25
   1.3900        21
   1.4000        18
   1.4100        10
   1.4200        12
   1.4300        18
   1.4400        15
   1.4500        15
   1.4600        16
   1.4700        11
   1.4800         6
   1.4900         8
   1.5000         9
   1.5100        14
   1.5200         5
   1.5300         5
   1.5400         7
   1.5500         6
   1.5600         4
   1.5700         6
   1.5800         9
   1.5900         5
   1.6000         8
   1.6100         5
   1.6200         6
   1.6300         7
   1.6400         6
   1.6500         4
   1.6600         2
   1.6700         3
   1.6800         5
   1.6900         3
   1.7000         9
   1.7100         1
   1.7200         4
   1.7300         4
   1.7400         2
   1.7500         1
   1.7600         0
   1.7700         7
   1.7800         5
   1.7900         2
   1.8000         3
   1.8100         3
   1.8200         1
   1.8300         3
   1.8400         3
   1.8500         3
   1.8600         1
   1.8700         5
   1.8800         3
   1.8900         1
   1.9000         2
   1.9100         3
   1.9200         1
   1.9300         0
   1.9400         6
   1.9500         2
   1.9600         2
   1.9700         1
   1.9800         3
   1.9900         0
   2.0000         0
   2.0100         2
   2.0200         0
   2.0300         0
   2.0400         1
   2.0500         1
   2.0600         3
   2.0700         1
   2.0800         0
   2.0900         0
   2.1000         2
   2.1100         0
   2.1200         2
   2.1300         1
   2.1400         1
   2.1500         2
   2.1600         0
   2.1700         0
   2.1800         1
   2.1900         2
   2.2000         1
   2.2100         1
   2.2200         0
   2.2300         0
   2.2400         0
   2.2500         0
   2.2600         0
   2.2700         1
   2.2800         0
   2.2900         1
   2.3000         0
   2.3100         0
   2.3200         0
   2.3300         1
   2.3400         1
   2.3500         0
   2.3600         1
   2.3700         0
   2.3800         1
   2.3900         1
   2.4000         2
   2.4100         1
   2.4200         0
   2.4300         0
   2.4400         0
   2.4500         1
   2.4600         2
   2.4700         0
   2.4800         1
   2.4900         0
   2.5000         0